File: Al.csv
2Theta,Intensity (counts)
30,62
30.35,83
30.7,61
31.05,75
31.4,62
31.75,83
32.1,82
32.45,109
32.8,116
33.15,101
33.5,95
33.85,90
34.2,91
34.55,59
34.9,67
35.25,57
35.6,52
35.95,84
36.3,68
36.65,77
37,60
37.35,79
37.7,75
38.05,84
38.4,194
38.75,574
39.1,115
39.45,105
39.8,133
40.15,110
40.5,98
40.85,76
41.2,91
41.55,46
41.9,53
42.25,57
42.6,71
42.95,65
43.3,55
43.65,45
44,62
44.35,49
44.7,158
45.05,281
45.4,71
45.75,71
46.1,89
46.45,64
46.8,81
47.15,76
47.5,67
47.85,50
48.2,51
48.55,51
48.9,46
49.25,53
49.6,43
49.95,61
50.3,48
50.65,64
51,54
51.35,69
51.7,57
52.05,47
52.4,47
52.75,55
53.1,58
53.45,57
53.8,63
54.15,40
54.5,43
54.85,60
55.2,35
55.55,37
55.9,39
56.25,49
56.6,47
56.95,39
57.3,36
57.65,58
58,47
58.35,54
58.7,50
59.05,49
59.4,44
59.75,41
60.1,54
60.45,43
60.8,52
61.15,54
61.5,49
61.85,50
62.2,50
62.55,41
62.9,48
63.25,59
63.6,44
63.95,47
64.3,54
64.65,43
65,58
65.35,226
65.7,58
66.05,39
66.4,34
66.75,46
67.1,45
67.45,55
67.8,52
68.15,54
68.5,53
68.85,54
69.2,32
69.55,49
69.9,38
70.25,41
70.6,40
70.95,41
71.3,37
71.65,41
72,35
72.35,37
72.7,29
73.05,36
73.4,32
73.75,39
74.1,34
74.45,42
74.8,39
75.15,34
75.5,38
75.85,30
76.2,37
76.55,29
76.9,35
77.25,29
77.6,42
77.95,36
78.3,258
78.65,151
79,45
79.35,35
79.7,47
80.05,42
80.4,50
80.75,44
81.1,52
81.45,34
81.8,53
82.15,46
82.5,89
82.85,92
83.2,49
83.55,46
83.9,41
84.25,42
84.6,34
84.95,46
85.3,49
85.65,48
86,40
86.35,31
86.7,36
87.05,40
87.4,26
87.75,45
88.1,32
88.45,36
88.8,39
89.15,26
89.5,33
89.85,48
90.2,27
90.55,42
90.9,43
91.25,32
91.6,42
91.95,43
92.3,40
92.65,46
93,39
93.35,38
93.7,49
94.05,44
94.4,26
94.75,31
95.1,36
95.45,28
95.8,41
96.15,47
96.5,31
96.85,33
97.2,39
97.55,39
97.9,41
98.25,35
98.6,45
98.95,41
99.3,50
99.65,65
100,38
100.35,36
100.7,39
101.05,56
101.4,54
101.75,38
102.1,37
102.45,50
102.8,42
103.15,39
103.5,43
103.85,38
104.2,47
104.55,38
104.9,48
105.25,38
105.6,45
105.95,38
106.3,42
106.65,48
107,41
107.35,36
107.7,48
108.05,45
108.4,41
108.75,55
109.1,42
109.45,41
109.8,45
110.15,39
110.5,43
110.85,52
111.2,37
111.55,64
111.9,81
112.25,76
112.6,89
112.95,52
113.3,55
113.65,43
114,45
114.35,44
114.7,37
115.05,49
115.4,48
115.75,47
116.1,49
116.45,114
116.8,85
117.15,75
117.5,55
117.85,62
118.2,48
118.55,49
118.9,47
119.25,57
119.6,50
119.95,48
120,56