File: CsCl.csv
2Theta,Intensity (counts)
30,109
30.35,192
30.7,163
31.05,112
31.4,101
31.75,105
32.1,93
32.45,89
32.8,90
33.15,86
33.5,90
33.85,98
34.2,83
34.55,83
34.9,77
35.25,80
35.6,87
35.95,85
36.3,88
36.65,69
37,66
37.35,69
37.7,66
38.05,51
38.4,61
38.75,62
39.1,70
39.45,49
39.8,53
40.15,49
40.5,66
40.85,49
41.2,46
41.55,56
41.9,64
42.25,54
42.6,53
42.95,51
43.3,44
43.65,62
44,47
44.35,42
44.7,35
45.05,40
45.4,57
45.75,39
46.1,42
46.45,46
46.8,40
47.15,45
47.5,35
47.85,45
48.2,31
48.55,34
48.9,46
49.25,96
49.6,28
49.95,35
50.3,37
50.65,41
51,38
51.35,47
51.7,26
52.05,38
52.4,40
52.75,34
53.1,28
53.45,32
53.8,37
54.15,70
54.5,56
54.85,35
55.2,29
55.55,32
55.9,39
56.25,36
56.6,39
56.95,40
57.3,31
57.65,38
58,23
58.35,20
58.7,26
59.05,30
59.4,33
59.75,25
60.1,26
60.45,26
60.8,29
61.15,28
61.5,28
61.85,30
62.2,24
62.55,24
62.9,34
63.25,28
63.6,66
63.95,28
64.3,32
64.65,35
65,30
65.35,23
65.7,27
66.05,29
66.4,27
66.75,26
67.1,27
67.45,23
67.8,31
68.15,36
68.5,26
68.85,26
69.2,14
69.55,30
69.9,38
70.25,27
70.6,33
70.95,34
71.3,24
71.65,28
72,28
72.35,57
72.7,38
73.05,28
73.4,32
73.75,15
74.1,19
74.45,25
74.8,26
75.15,27
75.5,17
75.85,21
76.2,26
76.55,31
76.9,17
77.25,26
77.6,15
77.95,33
78.3,25
78.65,20
79,28
79.35,24
79.7,23
80.05,23
80.4,22
80.75,28
81.1,31
81.45,20
81.8,28
82.15,31
82.5,19
82.85,19
83.2,23
83.55,29
83.9,21
84.25,23
84.6,27
84.95,23
85.3,23
85.65,26
86,23
86.35,23
86.7,25
87.05,18
87.4,17
87.75,23
88.1,18
88.45,73
88.8,58
89.15,28
89.5,29
89.85,27
90.2,18
90.55,27
90.9,22
91.25,24
91.6,27
91.95,39
92.3,23
92.65,24
93,22
93.35,28
93.7,34
94.05,30
94.4,32
94.75,20
95.1,18
95.45,24
95.8,26
96.15,27
96.5,30
96.85,39
97.2,23
97.55,27
97.9,24
98.25,27
98.6,28
98.95,26
99.3,23
99.65,21
100,13
100.35,24
100.7,43
101.05,33
101.4,21
101.75,30
102.1,22
102.45,31
102.8,25
103.15,17
103.5,31
103.85,25
104.2,29
104.55,24
104.9,30
105.25,35
105.6,29
105.95,16
106.3,33
106.65,20
107,25
107.35,24
107.7,28
108.05,37
108.4,35
108.75,18
109.1,26
109.45,29
109.8,23
110.15,21
110.5,23
110.85,28
111.2,24
111.55,33
111.9,25
112.25,24
112.6,24
112.95,31
113.3,38
113.65,38
114,25
114.35,23
114.7,27
115.05,26
115.4,32
115.75,35
116.1,35
116.45,25
116.8,22
117.15,25
117.5,26
117.85,31
118.2,27
118.55,26
118.9,23
119.25,25
119.6,27
119.95,26
120,29