File: KCl.csv
2Theta,Intensity (counts)
25,200
25.4,239
25.8,241
26.2,192
26.6,182
27,136
27.4,141
27.8,132
28.2,503
28.6,240
29,202
29.4,224
29.8,181
30.2,120
30.6,115
31,93
31.4,71
31.8,74
32.2,73
32.6,70
33,70
33.4,81
33.8,93
34.2,66
34.6,55
35,70
35.4,70
35.8,69
36.2,58
36.6,63
37,60
37.4,53
37.8,57
38.2,56
38.6,41
39,49
39.4,55
39.8,67
40.2,77
40.6,236
41,57
41.4,64
41.8,73
42.2,47
42.6,41
43,60
43.4,51
43.8,54
44.2,47
44.6,52
45,44
45.4,43
45.8,52
46.2,47
46.6,34
47,46
47.4,51
47.8,45
48.2,43
48.6,34
49,43
49.4,38
49.8,49
50.2,74
50.6,45
51,35
51.4,47
51.8,31
52.2,31
52.6,43
53,33
53.4,31
53.8,40
54.2,34
54.6,30
55,31
55.4,22
55.8,35
56.2,27
56.6,41
57,20
57.4,35
57.8,32
58.2,27
58.6,190
59,43
59.4,31
59.8,29
60.2,38
60.6,33
61,33
61.4,35
61.8,33
62.2,25
62.6,26
63,41
63.4,31
63.8,38
64.2,31
64.6,29
65,18
65.4,26
65.8,33
66.2,73
66.6,88
67,32
67.4,32
67.8,19
68.2,32
68.6,28
69,31
69.4,40
69.8,31
70.2,26
70.6,22
71,27
71.4,29
71.8,20
72.2,35
72.6,25
73,20
73.4,25
73.8,70
74.2,34
74.6,21
75,25
75.4,27
75.8,28
76.2,25
76.6,21
77,24
77.4,34
77.8,20
78.2,19
78.6,22
79,26
79.4,26
79.8,30
80.2,15
80.6,25
81,21
81.4,20
81.8,32
82.2,25
82.6,22
83,26
83.4,32
83.8,20
84.2,22
84.6,15
85,32
85.4,28
85.8,23
86.2,24
86.6,21
87,36
87.4,25
87.8,25
88.2,21
88.6,22
89,21
89.4,19
89.8,22
90.2,18
90.6,29
91,23
91.4,27
91.8,18
92.2,23
92.6,24
93,30
93.4,25
93.8,25
94.2,26
94.6,43
95,28
95.4,31
95.8,26
96.2,30
96.6,39
97,28
97.4,28
97.8,22
98.2,24
98.6,37
99,31
99.4,22
99.8,19
100.2,30
100.6,28
101,29
101.4,56
101.8,25
102.2,28
102.6,38
103,30
103.4,32
103.8,25
104.2,21
104.6,32
105,30
105.4,32
105.8,19
106.2,28
106.6,29
107,21
107.4,22
107.8,30
108.2,37
108.6,35
109,29
109.4,27
109.8,26
110.2,32
110.6,31
111,27
111.4,27
111.8,33
112.2,34
112.6,25
113,30
113.4,31
113.8,29
114.2,27
114.6,21
115,34
115.4,25
115.8,33
116.2,30
116.6,19
117,37
117.4,16
117.8,31
118.2,38
118.6,27
119,39
119.4,27
119.8,31
120.2,24
120.6,40
121,32
121.4,23
121.8,33
122.2,28
122.6,35
123,38
123.4,39
123.8,44
124.2,40
124.6,36
125,40
125.4,42
125.8,33
126.2,34
126.6,38
127,40
127.4,39
127.8,41
128.2,36
128.6,31
129,42
129.4,28
129.8,38
130,32