File: LiF.csv
2Theta,Intensity (counts)
30,170
30.35,152
30.7,162
31.05,154
31.4,154
31.75,165
32.1,185
32.45,170
32.8,163
33.15,118
33.5,105
33.85,127
34.2,148
34.55,138
34.9,108
35.25,111
35.6,117
35.95,110
36.3,116
36.65,115
37,115
37.35,116
37.7,139
38.05,429
38.4,1347
38.75,239
39.1,168
39.45,172
39.8,182
40.15,161
40.5,121
40.85,123
41.2,99
41.55,81
41.9,91
42.25,82
42.6,65
42.95,93
43.3,96
43.65,83
44,106
44.35,540
44.7,1649
45.05,298
45.4,136
45.75,157
46.1,166
46.45,174
46.8,122
47.15,111
47.5,109
47.85,102
48.2,81
48.55,73
48.9,83
49.25,80
49.6,72
49.95,78
50.3,76
50.65,74
51,77
51.35,74
51.7,80
52.05,91
52.4,83
52.75,78
53.1,57
53.45,69
53.8,64
54.15,67
54.5,72
54.85,81
55.2,62
55.55,69
55.9,61
56.25,64
56.6,75
56.95,68
57.3,62
57.65,73
58,76
58.35,68
58.7,63
59.05,76
59.4,79
59.75,77
60.1,68
60.45,61
60.8,73
61.15,61
61.5,52
61.85,74
62.2,82
62.55,73
62.9,74
63.25,78
63.6,82
63.95,97
64.3,91
64.65,127
65,523
65.35,481
65.7,103
66.05,84
66.4,87
66.75,83
67.1,95
67.45,104
67.8,98
68.15,86
68.5,89
68.85,92
69.2,78
69.55,76
69.9,73
70.25,72
70.6,75
70.95,74
71.3,72
71.65,73
72,68
72.35,90
72.7,72
73.05,84
73.4,74
73.75,62
74.1,57
74.45,80
74.8,60
75.15,81
75.5,68
75.85,71
76.2,74
76.55,75
76.9,71
77.25,64
77.6,68
77.95,90
78.3,200
78.65,177
79,100
79.35,73
79.7,68
80.05,95
80.4,82
80.75,80
81.1,47
81.45,82
81.8,86
82.15,86
82.5,182
82.85,187
83.2,95
83.55,79
83.9,93
84.25,66
84.6,88
84.95,86
85.3,78
85.65,81
86,81
86.35,88
86.7,86
87.05,79
87.4,79
87.75,71
88.1,76
88.45,69
88.8,72
89.15,93
89.5,79
89.85,72
90.2,85
90.55,66
90.9,87
91.25,76
91.6,76
91.95,85
92.3,78
92.65,79
93,87
93.35,80
93.7,78
94.05,68
94.4,85
94.75,76
95.1,77
95.45,71
95.8,97
96.15,82
96.5,89
96.85,87
97.2,78
97.55,72
97.9,75
98.25,82
98.6,99
98.95,79
99.3,122
99.65,140
100,106
100.35,94
100.7,107
101.05,86
101.4,66
101.75,82
102.1,86
102.45,81
102.8,89
103.15,83
103.5,98
103.85,83
104.2,74
104.55,82
104.9,88
105.25,106
105.6,103
105.95,103
106.3,95
106.65,112
107,113
107.35,97
107.7,87
108.05,86
108.4,99
108.75,122
109.1,101
109.45,107
109.8,108
110.15,95
110.5,104
110.85,105
111.2,99
111.55,102
111.9,125
112.25,100
112.6,143
112.95,109
113.3,124
113.65,126
114,109
114.35,104
114.7,127
115.05,103
115.4,113
115.75,119
116.1,109
116.45,120
116.8,135
117.15,236
117.5,272
117.85,255
118.2,111
118.55,117
118.9,113
119.25,101
119.6,133
119.95,130
120,128