File: W.csv
2Theta,Intensity (counts)
25,124
25.4,121
25.8,112
26.2,116
26.6,117
27,107
27.4,113
27.8,108
28.2,102
28.6,101
29,88
29.4,71
29.8,76
30.2,65
30.6,60
31,54
31.4,66
31.8,59
32.2,63
32.6,57
33,51
33.4,53
33.8,52
34.2,46
34.6,60
35,49
35.4,43
35.8,47
36.2,49
36.6,62
37,48
37.4,37
37.8,43
38.2,48
38.6,46
39,54
39.4,71
39.8,106
40.2,213
40.6,71
41,56
41.4,56
41.8,56
42.2,53
42.6,50
43,45
43.4,41
43.8,40
44.2,42
44.6,40
45,29
45.4,44
45.8,30
46.2,42
46.6,36
47,45
47.4,31
47.8,35
48.2,43
48.6,46
49,39
49.4,40
49.8,32
50.2,26
50.6,27
51,33
51.4,34
51.8,35
52.2,33
52.6,29
53,38
53.4,44
53.8,26
54.2,40
54.6,36
55,37
55.4,28
55.8,41
56.2,28
56.6,28
57,25
57.4,35
57.8,52
58.2,78
58.6,38
59,39
59.4,37
59.8,38
60.2,25
60.6,35
61,34
61.4,29
61.8,27
62.2,24
62.6,18
63,35
63.4,23
63.8,33
64.2,28
64.6,26
65,21
65.4,23
65.8,25
66.2,22
66.6,20
67,22
67.4,31
67.8,21
68.2,26
68.6,32
69,26
69.4,31
69.8,32
70.2,25
70.6,23
71,28
71.4,31
71.8,22
72.2,29
72.6,56
73,145
73.4,98
73.8,42
74.2,28
74.6,26
75,32
75.4,24
75.8,36
76.2,36
76.6,36
77,30
77.4,36
77.8,39
78.2,25
78.6,22
79,28
79.4,25
79.8,19
80.2,19
80.6,23
81,24
81.4,27
81.8,18
82.2,18
82.6,19
83,30
83.4,29
83.8,23
84.2,20
84.6,22
85,30
85.4,27
85.8,21
86.2,19
86.6,54
87,132
87.4,31
87.8,29
88.2,31
88.6,27
89,29
89.4,31
89.8,24
90.2,34
90.6,34
91,25
91.4,30
91.8,29
92.2,26
92.6,33
93,22
93.4,34
93.8,25
94.2,29
94.6,24
95,25
95.4,24
95.8,26
96.2,23
96.6,16
97,38
97.4,20
97.8,24
98.2,30
98.6,28
99,33
99.4,34
99.8,28
100.2,52
100.6,117
101,80
101.4,24
101.8,31
102.2,25
102.6,29
103,36
103.4,27
103.8,32
104.2,33
104.6,36
105,28
105.4,32
105.8,23
106.2,27
106.6,30
107,22
107.4,28
107.8,33
108.2,39
108.6,26
109,21
109.4,25
109.8,28
110.2,26
110.6,31
111,23
111.4,29
111.8,28
112.2,26
112.6,28
113,28
113.4,27
113.8,27
114.2,28
114.6,45
115,53
115.4,46
115.8,33
116.2,34
116.6,30
117,20
117.4,33
117.8,40
118.2,29
118.6,36
119,30
119.4,34
119.8,35
120.2,29
120.6,27
121,34
121.4,30
121.8,36
122.2,34
122.6,43
123,36
123.4,40
123.8,27
124.2,34
124.6,23
125,29
125.4,30
125.8,29
126.2,30
126.6,38
127,31
127.4,28
127.8,39
128.2,26
128.6,43
129,34
129.4,49
129.8,45
130.2,45
130.6,61
131,221
131.4,114
131.8,196
132.2,51
132.6,27
133,40
133.4,37
133.8,40
134.2,48
134.6,36
135,45